Pos. [°2?],Intensity [Counts]
5.1504,2918.0531
5.1614,2905.769
5.1724,2915.9729
5.1834,2861.4336
5.1944,2851.7438
5.2054,2803.7178
5.2164,2825.9883
5.2274,2881.1022
5.2384,2839.236
5.2494,2819.059
5.2604,2844.3063
5.2714,2808.1445
5.2824,2776.9602
5.2934,2716.3107
5.3044,2698.0934
5.3154,2751.5015
5.3264,2681.5486
5.3374,2679.9361
5.3484,2670.6504
5.3594,2666.5811
5.3704,2624.4533
5.3814,2644.7345
5.3924,2599.9469
5.4034,2632.6244
5.4144,2590.292
5.4254,2559.1121
5.4364,2492.6656
5.4474,2508.2596
5.4584,2477.323
5.4694,2521.2557
5.4804,2439.1902
5.4914,2429
5.5024,2461.0723
5.5134,2491.2684
5.5244,2439.1598
5.5354,2374.7296
5.5464,2343.0192
5.5574,2415.6372
5.5684,2384.9454
5.5794,2407.7876
5.5904,2392.4553
5.6014,2362.9793
5.6124,2223.966
5.6234,2251.7119
5.6344,2235.3112
5.6454,2309.0384
5.6564,2347.6372
5.6674,2287.6106
5.6784,2282.0531
5.6894,2277.0049
5.7004,2265.3732
5.7114,2296.0413
5.7224,2213.9233
5.7334,2182.35
5.7444,2139.0709
5.7554,2270.9773
5.7664,2153.1932
5.7774,2134.2921
5.7884,2237.4651
5.7994,2213.2949
5.8104,2143.4956
5.8214,2225.4257
5.8324,2152.6008
5.8434,2120.7493
5.8544,2095.0973
5.8654,2070.5674
5.8764,2150.1681
5.8874,2128.7187
5.8984,2069.5811
5.9094,2092.1623
5.9204,2111.9425
5.9314,2129.8446
5.9424,2125.972
5.9534,2124.2379
5.9644,2101.2615
5.9754,2073.2566
5.9864,2037.0664
5.9974,2034.4425
6.0084,2077.8629
6.0194,2080.5673
6.0304,2035.5393
6.0414,2044.2242
6.0524,2061.4567
6.0634,2047.1691
6.0744,2019.9513
6.0854,1972.9095
6.0964,1989.4204
6.1074,2006.0767
6.1184,1999.8702
6.1294,1969.6352
6.1404,1950.5915
6.1514,1955.6952
6.1624,1996.6431
6.1734,2010.6902
6.1844,2003.324
6.1954,2042.1406
6.2064,2046.1593
6.2174,2017.7414
6.2284,1999.5885
6.2394,1932.8023
6.2504,1968.1033
6.2614,1942.1651
6.2724,1948.1815
6.2834,1953.7807
6.2944,1978.4263
6.3054,2030.0531
6.3164,1962.0471
6.3274,2005.7326
6.3384,2036.5516
6.3494,1947.6224
6.3604,1929.4779
6.3714,1870.8318
6.3824,1917.5084
6.3934,1943.2852
6.4044,1944.2021
6.4154,1926.9852
6.4264,1912.3073
6.4374,1951.7404
6.4484,1916.7979
6.4594,1916.7345
6.4704,1911.8982
6.4814,1953.4307
6.4924,1903.4316
6.5034,1907.9027
6.5144,1851.9075
6.5254,1897.3894
6.5364,1918.9631
6.5474,1897.9725
6.5584,1883.4199
6.5694,1838.7964
6.5804,1852.9189
6.5914,1831.8329
6.6024,1951.7316
6.6134,1937.4965
6.6244,1919.2433
6.6354,1857.4307
6.6464,1832.7085
6.6574,1852.3717
6.6684,1808.7699
6.6794,1794.5753
6.6904,1857.825
6.7014,1849.2596
6.7124,1852.8471
6.7234,1857.825
6.7344,1832.3334
6.7454,1862.3677
6.7564,1826.0212
6.7674,1881.9203
6.7784,1831.3024
6.7894,1865.2782
6.8004,1852.0797
6.8114,1914.8918
6.8224,1880.4951
6.8334,1847.2035
6.8444,1830.9347
6.8554,1912.8309
6.8664,1881.9734
6.8774,1889.2813
6.8884,1904.3043
6.8994,1866.3186
6.9104,1864.9203
6.9214,1858.9027
6.9324,1892.0428
6.9434,1881.9911
6.9544,1829.4257
6.9654,1815.9381
6.9764,1832.5767
6.9874,1846.8034
6.9984,1854.2227
7.0094,1786.6155
7.0204,1810.4032
7.0314,1837.5958
7.0424,1818.7921
7.0534,1845.6008
7.0644,1841.4026
7.0754,1820.9754
7.0864,1817.6799
7.0974,1837.3127
7.1084,1843.4007
7.1194,1851.1308
7.1304,1840.5074
7.1414,1785.1209
7.1524,1847.0881
7.1634,1857.9469
7.1744,1822.1755
7.1854,1817.0118
7.1964,1845.3157
7.2074,1839.9253
7.2184,1850.3943
7.2294,1798.9793
7.2404,1822.1195
7.2514,1847.9322
7.2624,1890.3452
7.2734,1831.4896
7.2844,1895.153
7.2954,1891.2271
7.3064,1856.6027
7.3174,1862.2714
7.3284,1815.1769
7.3394,1782.2478
7.3504,1785.6947
7.3614,1837.3009
7.3724,1850.2773
7.3834,1828.704
7.3944,1756.382
7.4054,1767.3284
7.4164,1734.6376
7.4274,1780.9322
7.4384,1751.588
7.4494,1758.6903
7.4604,1744.3318
7.4714,1778.6559
7.4824,1705.209
7.4934,1789.646
7.5044,1767.1357
7.5154,1805.7187
7.5264,1746.1799
7.5374,1680.7297
7.5484,1752.3624
7.5594,1771.5309
7.5704,1681.8614
7.5814,1750.8692
7.5924,1740.1195
7.6034,1733.3324
7.6144,1775.999
7.6254,1786.6725
7.6364,1756.618
7.6474,1766.7581
7.6584,1748.0398
7.6694,1717.9194
7.6804,1736.1971
7.6914,1724.6519
7.7024,1745.1451
7.7134,1768.3303
7.7244,1696.087
7.7354,1691.5389
7.7464,1751.739
7.7574,1764.0973
7.7684,1717.152
7.7794,1755.6303
7.7904,1723.028
7.8014,1723.7916
7.8124,1767.9612
7.8234,1760.1032
7.8344,1738.4322
7.8454,1774.2694
7.8564,1765.1328
7.8674,1790.7591
7.8784,1748.0569
7.8894,1703.4602
7.9004,1742.2503
7.9114,1749.5457
7.9224,1749.8112
7.9334,1762.9616
7.9444,1713.3185
7.9554,1682.7434
7.9664,1722.7931
7.9774,1767.5556
7.9884,1741.9793
7.9994,1737.8466
8.0104,1717.1224
8.0214,1692.0236
8.0324,1759.4032
8.0434,1778.6037
8.0544,1751.2433
8.0654,1722.0757
8.0764,1778.2838
8.0874,1799.1091
8.0984,1754.3176
8.1094,1761.6067
8.1204,1744.1017
8.1314,1729.3618
8.1424,1732.4395
8.1534,1762.5841
8.1644,1749.0649
8.1754,1737.3392
8.1864,1699.702
8.1974,1631.4994
8.2084,1701.6215
8.2194,1712.7404
8.2304,1736.1475
8.2414,1704.4267
8.2524,1689.3717
8.2634,1781.6382
8.2744,1753.2915
8.2854,1716.5103
8.2964,1689.2881
8.3074,1681.4543
8.3184,1655.7124
8.3294,1677.7218
8.3404,1659.7768
8.3514,1744.6638
8.3624,1717.4277
8.3734,1719.9941
8.3844,1725.2566
8.3954,1656.0581
8.4064,1742.4518
8.4174,1671.3392
8.4284,1654.7281
8.4394,1608.24
8.4504,1678.2699
8.4614,1704.8309
8.4724,1719.8269
8.4834,1708.0472
8.4944,1753.5988
8.5054,1752.2123
8.5164,1690.7331
8.5274,1729.4484
8.5384,1725.5728
8.5494,1750.1769
8.5604,1707.9027
8.5714,1768.5084
8.5824,1761.0855
8.5934,1703.5349
8.6044,1723.084
8.6154,1699.2419
8.6264,1699.387
8.6374,1728.6372
8.6484,1729.5044
8.6594,1707.7896
8.6704,1693.2783
8.6814,1706.0531
8.6924,1715.6716
8.7034,1731.8683
8.7144,1699.9247
8.7254,1620.0423
8.7364,1636.9057
8.7474,1662.0442
8.7584,1650.1239
8.7694,1688.9292
8.7804,1734.3187
8.7914,1740.2575
8.8024,1703.7286
8.8134,1721.2626
8.8244,1721.9567
8.8354,1690.9439
8.8464,1672.5265
8.8574,1715.0296
8.8684,1697.5402
8.8794,1647.8023
8.8904,1651.6357
8.9014,1664.4681
8.9124,1693.6121
8.9234,1705.7119
8.9344,1673.0059
8.9454,1656.9115
8.9564,1703.4622
8.9674,1729.3235
8.9784,1711.1268
8.9894,1702.6863
9.0004,1656.8908
9.0114,1696.7169
9.0224,1705.8127
9.0334,1663.2251
9.0444,1630.5575
9.0554,1689.3669
9.0664,1728.5369
9.0774,1708.8908
9.0884,1668.528
9.0994,1675.3756
9.1104,1671.6062
9.1214,1652.4897
9.1324,1657.4612
9.1434,1642.6902
9.1544,1742.7425
9.1654,1656.4561
9.1764,1714.6225
9.1874,1750.2272
9.1984,1666.5328
9.2094,1653.4071
9.2204,1730.4445
9.2314,1730.2163
9.2424,1730
9.2534,1723.1308
9.2644,1709.0895
9.2754,1754.6047
9.2864,1689.2916
9.2974,1758.4208
9.3084,1738.289
9.3194,1699.3392
9.3304,1683.9586
9.3414,1635.3275
9.3524,1718.7129
9.3634,1707.9804
9.3744,1717.1931
9.3854,1655.1662
9.3964,1641.503
9.4074,1670.705
9.4184,1658.2665
9.4294,1708.7709
9.4404,1705.8763
9.4514,1793.9212
9.4624,1696.9021
9.4734,1672.4927
9.4844,1697.0427
9.4954,1667.4377
9.5064,1726.2949
9.5174,1689.2489
9.5284,1738.9527
9.5394,1680.2654
9.5504,1667.7193
9.5614,1699.0236
9.5724,1706.4573
9.5834,1742.5025
9.5944,1760.144
9.6054,1728.7551
9.6164,1714.97
9.6274,1745.3246
9.6384,1791.4778
9.6494,1716.5161
9.6604,1641.797
9.6714,1692.3895
9.6824,1688.9556
9.6934,1657.8909
9.7044,1747.5252
9.7154,1754.2211
9.7264,1695.7443
9.7374,1671.5132
9.7484,1691.4617
9.7594,1683.5575
9.7704,1688.5399
9.7814,1744.1358
9.7924,1709.3927
9.8034,1682.1092
9.8144,1698.2979
9.8254,1709.825
9.8364,1739.3098
9.8474,1695.9468
9.8584,1729.7327
9.8694,1703.7344
9.8804,1699.2306
9.8914,1714.471
9.9024,1675.0235
9.9134,1748.5665
9.9244,1768.6475
9.9354,1718.3982
9.9464,1761.1854
9.9574,1694.758
9.9684,1757.1668
9.9794,1683.7265
9.9904,1729.6289
10.0014,1745.3658
10.0124,1696.0653
10.0234,1711.2508
10.0344,1731.3717
10.0454,1726.2035
10.0564,1761.0212
10.0674,1692.0589
10.0784,1718.2228
10.0894,1786.0807
10.1004,1712.2152
10.1114,1865.8035
10.1224,1734.1055
10.1334,1799.3452
10.1444,1825.4455
10.1554,1822.0433
10.1664,1829.8465
10.1774,1728.0375
10.1884,1871.8632
10.1994,1793.9558
10.2104,1840.1135
10.2214,1790.4052
10.2324,1852.2389
10.2434,1811.7759
10.2544,1867.908
10.2654,1835.5959
10.2764,1858.1931
10.2874,1766.4671
10.2984,1792.6577
10.3094,1754.5143
10.3204,1792.1985
10.3314,1742.6903
10.3424,1775.7645
10.3534,1789.7375
10.3644,1787.0044
10.3754,1798.2301
10.3864,1810.7635
10.3974,1784.1562
10.4084,1703.5029
10.4194,1678.7661
10.4304,1701.4335
10.4414,1651.295
10.4524,1646.5315
10.4634,1664
10.4744,1685.0369
10.4854,1652.64
10.4964,1623.2081
10.5074,1696.3599
10.5184,1702.3126
10.5294,1672.1062
10.5404,1670.0963
10.5514,1646.3667
10.5624,1628.7846
10.5734,1652.0247
10.5844,1663.2305
10.5954,1609.4778
10.6064,1632.3118
10.6174,1681.4838
10.6284,1700.708
10.6394,1678.1307
10.6504,1637.7463
10.6614,1632.7817
10.6724,1648.0059
10.6834,1647.1003
10.6944,1650.6033
10.7054,1623.7757
10.7164,1561.8062
10.7274,1634.1329
10.7384,1629.5014
10.7494,1630.2567
10.7604,1597.7801
10.7714,1614.6815
10.7824,1565.3327
10.7934,1564.8909
10.8044,1620.8614
10.8154,1619.1071
10.8264,1612.7389
10.8374,1581.4483
10.8484,1643.5345
10.8594,1641.174
10.8704,1637.9405
10.8814,1577.3696
10.8924,1585.5679
10.9034,1665.2479
10.9144,1627.4149
10.9254,1656.0797
10.9364,1626.8023
10.9474,1625.3707
10.9584,1640.1829
10.9694,1596.1651
10.9804,1621.0635
10.9914,1645.236
11.0024,1644.1932
11.0134,1696.1338
11.0244,1593.3804
11.0354,1635.6785
11.0464,1642.9086
11.0574,1684.8762
11.0684,1566.7381
11.0794,1644.0265
11.0904,1599.559
11.1014,1587.7395
11.1124,1607.9146
11.1234,1686.1504
11.1344,1670.5963
11.1454,1623.6215
11.1564,1642.7685
11.1674,1666.4424
11.1784,1606.9002
11.1894,1578.1209
11.2004,1569.5094
11.2114,1599.9126
11.2224,1670.3008
11.2334,1617.8427
11.2444,1627.494
11.2554,1592.6756
11.2664,1617.8422
11.2774,1622.3421
11.2884,1597.4824
11.2994,1613.8829
11.3104,1576.7911
11.3214,1585.6459
11.3324,1564.2597
11.3434,1606.3166
11.3544,1577.727
11.3654,1518.3412
11.3764,1542.3305
11.3874,1583.5369
11.3984,1592.3422
11.4094,1602.412
11.4204,1609.5355
11.4314,1646.2242
11.4424,1662.2631
11.4534,1606.9496
11.4644,1564.212
11.4754,1587.4739
11.4864,1576.5797
11.4974,1549.5967
11.5084,1498.998
11.5194,1552.4072
11.5304,1601.3722
11.5414,1578.5614
11.5524,1585.7567
11.5634,1611.6244
11.5744,1602.7812
11.5854,1622.3511
11.5964,1573.4797
11.6074,1545.9597
11.6184,1577.3408
11.6294,1587.7276
11.6404,1565.6002
11.6514,1577.7877
11.6624,1580.5772
11.6734,1599.9873
11.6844,1581.6991
11.6954,1581.0689
11.7064,1583.1111
11.7174,1574.6549
11.7284,1595.8978
11.7394,1604
11.7504,1637.9411
11.7614,1628.408
11.7724,1641.3073
11.7834,1578.9143
11.7944,1591.7193
11.8054,1532.2054
11.8164,1579.0045
11.8274,1588.2851
11.8384,1608.8732
11.8494,1615.528
11.8604,1559.6592
11.8714,1522.176
11.8824,1570.4573
11.8934,1523.7856
11.9044,1581.3251
11.9154,1492.2919
11.9264,1634.1748
11.9374,1534.1041
11.9484,1579.6461
11.9594,1569.1967
11.9704,1608.3977
11.9814,1572.525
11.9924,1525.1284
12.0034,1550.8378
12.0144,1547.6018
12.0254,1550.3384
12.0364,1644.7256
12.0474,1610.761
12.0584,1596.3028
12.0694,1576.6923
12.0804,1624.23
12.0914,1567.3935
12.1024,1643.612
12.1134,1600.4248
12.1244,1639.3605
12.1354,1735.537
12.1464,1782.1164
12.1574,1695.7384
12.1684,1687.7616
12.1794,1651.1443
12.1904,1556.3624
12.2014,1609.4465
12.2124,1639.5928
12.2234,1596.999
12.2344,1587.4537
12.2454,1551
12.2564,1567.502
12.2674,1590.9242
12.2784,1557.3775
12.2894,1540.3304
12.3004,1538.2295
12.3114,1511.9558
12.3224,1540.1367
12.3334,1562.3825
12.3444,1543.5043
12.3554,1517.0266
12.3664,1521.5403
12.3774,1554.5104
12.3884,1594.9056
12.3994,1568.2064
12.4104,1543.0885
12.4214,1554.2537
12.4324,1565.3343
12.4434,1550.8997
12.4544,1506.5412
12.4654,1515.3669
12.4764,1578.034
12.4874,1540.5623
12.4984,1531.2164
12.5094,1534.1769
12.5204,1535.267
12.5314,1508.8652
12.5424,1508.3776
12.5534,1528.6982
12.5644,1569.4081
12.5754,1518.0647
12.5864,1524.6864
12.5974,1509.8524
12.6084,1487.7787
12.6194,1515.18
12.6304,1516.9439
12.6414,1474.8849
12.6524,1577.5504
12.6634,1500.7667
12.6744,1542.7376
12.6854,1594.2774
12.6964,1579.6327
12.7074,1550.6194
12.7184,1570.737
12.7294,1514.4296
12.7404,1471.6519
12.7514,1534.6304
12.7624,1497.8918
12.7734,1638.3985
12.7844,1519.4752
12.7954,1527.7808
12.8064,1509.9734
12.8174,1488.764
12.8284,1558.2656
12.8394,1514.5427
12.8504,1545.9694
12.8614,1484.9844
12.8724,1559.4955
12.8834,1502.4573
12.8944,1538.411
12.9054,1508.9912
12.9164,1524.3712
12.9274,1530.9037
12.9384,1551.2965
12.9494,1548.111
12.9604,1495.9404
12.9714,1467.0561
12.9824,1518.0674
12.9934,1547.0698
13.0044,1521.5222
13.0154,1531.9173
13.0264,1477.9549
13.0374,1525.4276
13.0484,1463.069
13.0594,1530.7021
13.0704,1528.0737
13.0814,1510.9312
13.0924,1507.709
13.1034,1529.4426
13.1144,1536.7476
13.1254,1480.5419
13.1364,1514.5207
13.1474,1531.9706
13.1584,1540.2821
13.1694,1515.8584
13.1804,1525.2921
13.1914,1528.1612
13.2024,1514.5089
13.2134,1521.0707
13.2244,1509.5011
13.2354,1525.5103
13.2464,1500.1406
13.2574,1476.2527
13.2684,1493.7287
13.2794,1496.4512
13.2904,1470.8113
13.3014,1508.2213
13.3124,1521.6322
13.3234,1500.4198
13.3344,1492.0826
13.3454,1484.6961
13.3564,1543.0764
13.3674,1542.1208
13.3784,1577.6271
13.3894,1552.0529
13.4004,1517.9912
13.4114,1541.8014
13.4224,1542.9641
13.4334,1467.9408
13.4444,1503.7273
13.4554,1533.5585
13.4664,1520.3569
13.4774,1488.6577
13.4884,1495.5477
13.4994,1455.8317
13.5104,1497.0365
13.5214,1575.7691
13.5324,1556.1105
13.5434,1499.0599
13.5544,1570.2219
13.5654,1509.8612
13.5764,1593.7097
13.5874,1593.2802
13.5984,1565.4203
13.6094,1577.9715
13.6204,1479.4177
13.6314,1500.5458
13.6424,1486.5201
13.6534,1498.3638
13.6644,1521.8408
13.6754,1460.3598
13.6864,1539.1152
13.6974,1445.575
13.7084,1535.9195
13.7194,1532.2281
13.7304,1607.7509
13.7414,1518.3578
13.7524,1516.6071
13.7634,1470.9499
13.7744,1516.3294
13.7854,1527.357
13.7964,1552.1459
13.8074,1496.4004
13.8184,1594.6716
13.8294,1584.3922
13.8404,1527.7214
13.8514,1576.0284
13.8624,1521.7257
13.8734,1542.9507
13.8844,1487.5197
13.8954,1515.1947
13.9064,1540.0217
13.9174,1571.9419
13.9284,1556.3468
13.9394,1609.7519
13.9504,1497.3472
13.9614,1523.4513
13.9724,1549.8595
13.9834,1597.7452
13.9944,1554.1151
14.0054,1574.7543
14.0164,1618.6067
14.0274,1612.1091
14.0384,1566.7983
14.0494,1512.062
14.0604,1550.7834
14.0714,1570.1424
14.0824,1522.3797
14.0934,1569.9558
14.1044,1579.9833
14.1154,1569.4464
14.1264,1582.6078
14.1374,1602.4218
14.1484,1579.1224
14.1594,1527.6547
14.1704,1537.0174
14.1814,1630.9677
14.1924,1609.4998
14.2034,1570.6146
14.2144,1646.4092
14.2254,1664.0087
14.2364,1623.6234
14.2474,1639.0729
14.2584,1690.8349
14.2694,1638.573
14.2804,1629.6781
14.2914,1663.885
14.3024,1625.8878
14.3134,1604.176
14.3244,1673.9869
14.3354,1737.3914
14.3464,1701.9384
14.3574,1691.6874
14.3684,1696.6067
14.3794,1635.7393
14.3904,1715.5799
14.4014,1733.994
14.4124,1721.5251
14.4234,1615.3803
14.4344,1626.6835
14.4454,1686.1791
14.4564,1648.1208
14.4674,1655.182
14.4784,1662.4587
14.4894,1659.6726
14.5004,1654.7792
14.5114,1629.1632
14.5224,1643.2434
14.5334,1631.0226
14.5444,1668.3059
14.5554,1613.23
14.5664,1663.9097
14.5774,1683.883
14.5884,1594.5219
14.5994,1665.3817
14.6104,1669
14.6214,1643.5368
14.6324,1512.103
14.6434,1570.7718
14.6544,1514.5577
14.6654,1607.1464
14.6764,1543.3471
14.6874,1523.5397
14.6984,1438.8996
14.7094,1376.8754
14.7204,1506.1799
14.7314,1505.4434
14.7424,1481.0526
14.7534,1459.2772
14.7644,1414.8088
14.7754,1428.4228
14.7864,1441.8363
14.7974,1441.352
14.8084,1442.0585
14.8194,1438.2006
14.8304,1439.6386
14.8414,1443.8014
14.8524,1445.2507
14.8634,1421.2585
14.8744,1398.6687
14.8854,1415.5841
14.8964,1428.1273
14.9074,1404.3421
14.9184,1404.0754
14.9294,1414.8276
14.9404,1325.0959
14.9514,1340.9055
14.9624,1341.0999
14.9734,1380.9627
14.9844,1384.8407
14.9954,1369.0413
15.0064,1352.2187
15.0174,1348.593
15.0284,1368.5507
15.0394,1363.5899
15.0504,1353.0089
15.0614,1380.1299
15.0724,1405.1824
15.0834,1400.6283
15.0944,1407.8383
15.1054,1420.6775
15.1164,1405.5457
15.1274,1365.226
15.1384,1373.2071
15.1494,1418.5104
15.1604,1378.0731
15.1714,1341.7817
15.1824,1356.3363
15.1934,1355.7227
15.2044,1329.8151
15.2154,1318.6431
15.2264,1366.8413
15.2374,1386.6588
15.2484,1424.7966
15.2594,1430.8476
15.2704,1451.772
15.2814,1383.4334
15.2924,1359.2911
15.3034,1399.0699
15.3144,1412.7537
15.3254,1360.9133
15.3364,1309.1995
15.3474,1434.9768
15.3584,1446.1115
15.3694,1391.0913
15.3804,1364.2787
15.3914,1337.4877
15.4024,1394.3453
15.4134,1373.8849
15.4244,1392.6682
15.4354,1332.8887
15.4464,1354.739
15.4574,1372.6156
15.4684,1418.4367
15.4794,1354.46
15.4904,1362.3545
15.5014,1359.1495
15.5124,1338.5265
15.5234,1363.6677
15.5344,1330.0166
15.5454,1341.8348
15.5564,1329.2287
15.5674,1381.1466
15.5784,1432.9865
15.5894,1337.4386
15.6004,1373.3884
15.6114,1355.652
15.6224,1372.9442
15.6334,1271.6608
15.6444,1282.5089
15.6554,1317.4198
15.6664,1296.0852
15.6774,1346.0266
15.6884,1362.8579
15.6994,1361.6676
15.7104,1335.646
15.7214,1332.2538
15.7324,1385.1389
15.7434,1460.7343
15.7544,1386.4559
15.7654,1418.8003
15.7764,1378.239
15.7874,1374.583
15.7984,1366.5597
15.8094,1382.5041
15.8204,1315.2499
15.8314,1360.3726
15.8424,1338.4085
15.8534,1317.0167
15.8644,1339.3006
15.8754,1375.876
15.8864,1379.8188
15.8974,1399.4266
15.9084,1353.913
15.9194,1341.117
15.9304,1301.4807
15.9414,1311.1565
15.9524,1325.2078
15.9634,1331.8016
15.9744,1348.6724
15.9854,1300.938
15.9964,1286.3269
16.0074,1281.528
16.0184,1313.3384
16.0294,1337.7896
16.0404,1359.7258
16.0514,1351.4493
16.0624,1330.2316
16.0734,1311.5486
16.0844,1363.8626
16.0954,1320.6949
16.1064,1332.9486
16.1174,1391.4337
16.1284,1370.1754
16.1394,1415.8232
16.1504,1398.5411
16.1614,1366.4985
16.1724,1396.1948
16.1834,1401.3038
16.1944,1358.9404
16.2054,1356.239
16.2164,1343.2458
16.2274,1343.4169
16.2384,1364.6534
16.2494,1333.2723
16.2604,1344.268
16.2714,1316.0796
16.2824,1341.5768
16.2934,1357.3235
16.3044,1352.1209
16.3154,1256.8051
16.3264,1337.6379
16.3374,1337.4454
16.3484,1395.0881
16.3594,1316.2368
16.3704,1304.3318
16.3814,1263.3254
16.3924,1304.1196
16.4034,1291.4424
16.4144,1293.9484
16.4254,1347.7346
16.4364,1279.0959
16.4474,1292.2557
16.4584,1305.1598
16.4694,1310.531
16.4804,1321.4346
16.4914,1316.3364
16.5024,1369.4025
16.5134,1301.4227
16.5244,1262.2853
16.5354,1305.82
16.5464,1299.8663
16.5574,1309.1621
16.5684,1266.2613
16.5794,1351.4896
16.5904,1330.9493
16.6014,1317.767
16.6124,1312.0225
16.6234,1302.5263
16.6344,1362.5366
16.6454,1265.2863
16.6564,1311.5959
16.6674,1326.3008
16.6784,1283.8887
16.6894,1254.2362
16.7004,1295.7417
16.7114,1288.961
16.7224,1350.8253
16.7334,1319.3541
16.7444,1341.4237
16.7554,1299.9046
16.7664,1288.5133
16.7774,1298.7188
16.7884,1303.4007
16.7994,1319.2803
16.8104,1335.8967
16.8214,1278.6802
16.8324,1242.7907
16.8434,1280.7729
16.8544,1301.5542
16.8654,1293.7432
16.8764,1291.947
16.8874,1345.5881
16.8984,1363.146
16.9094,1348.4975
16.9204,1298.6935
16.9314,1325.2126
16.9424,1318.4418
16.9534,1303.3275
16.9644,1337.531
16.9754,1321.7855
16.9864,1338.5842
16.9974,1348.2182
17.0084,1310.9674
17.0194,1319.0345
17.0304,1362.1992
