Angle,Counts
5.9644,2362.3972
5.9754,2321.1858
5.9864,2311.1253
5.9974,2275.6273
6.0084,2307.4794
6.0194,2349.7738
6.0304,2292.9577
6.0414,2249.1534
6.0524,2249.1387
6.0634,2276.589
6.0744,2271.5442
6.0854,2251.8564
6.0964,2234.4031
6.1074,2189.2212
6.1184,2199.6588
6.1294,2216.2989
6.1404,2202.5148
6.1514,2243.1279
6.1624,2270.5595
6.1734,2216.0354
6.1844,2202.5015
6.1954,2224.5644
6.2064,2208.8525
6.2174,2221.7375
6.2284,2158.4286
6.2394,2158.3806
6.2504,2235.1844
6.2614,2222.0727
6.2724,2224.0664
6.2834,2158.7974
6.2944,2221.6038
6.3054,2149.345
6.3164,2176.5537
6.3274,2157.8957
6.3384,2170.7611
6.3494,2177.3717
6.3604,2180.9902
6.3714,2178.4336
6.3824,2145.2925
6.3934,2189.4238
6.4044,2161.7094
6.4154,2153.4307
6.4264,2174.5629
6.4374,2134.7551
6.4484,2169.2021
6.4594,2128.8741
6.4704,2277.0311
6.4814,2197.4591
6.4924,2109.6101
6.5034,2161.8732
6.5144,2125.6411
6.5254,2101.471
6.5364,2091.4911
6.5474,2186.7719
6.5584,2088.1789
6.5694,2069.2832
6.5804,2124.6972
6.5914,2094.3098
6.6024,2139.8437
6.6134,2180.0422
6.6244,2091.9755
6.6354,2149.7698
6.6464,2039.891
6.6574,2190.3893
6.6684,2055.8628
6.6794,2047.0994
6.6904,2141.0698
6.7014,2082.177
6.7124,2127.7645
6.7234,2072.1544
6.7344,2079.3334
6.7454,2095.9675
6.7564,2041.1525
6.7674,2087.5663
6.7784,2047.5182
6.7894,2110.3373
6.8004,2143.997
6.8114,2081.9312
6.8224,2119.5452
6.8334,2075.0177
6.8444,2064.058
6.8554,2111.2635
6.8664,2107.9822
6.8774,2034.6362
6.8884,2027.357
6.8994,2106.1033
6.9104,2161.5536
6.9214,2138.2389
6.9324,2101.0103
6.9434,2069.6047
6.9544,2093.4872
6.9654,2094.2566
6.9764,2081.3707
6.9874,2095.5379
6.9984,2117.0797
7.0094,2100.1416
7.0204,2080.1283
7.0314,2088.0177
7.0424,2082.5108
7.0534,2089.2773
7.0644,2074.6548
7.0754,2077.8122
7.0864,2050.2015
7.0974,2072.2272
7.1084,2130.7832
7.1194,2089.4768
7.1304,2077.1475
7.1414,2119.9646
7.1524,2071.0924
7.1634,2031.708
7.1744,2052.7242
7.1854,2131.06
7.1964,2053.3716
7.2074,2086.8123
7.2184,2117.6327
7.2294,2094.1268
7.2404,2067.6986
7.2514,2103.4278
7.2624,2121.0266
7.2734,2118.1554
7.2844,2158.4047
7.2954,2104.1386
7.3064,2004.0024
7.3174,2103.4416
7.3284,2006.2728
7.3394,1997.8535
7.3504,2072.8172
7.3614,2053.7787
7.3724,2019.9749
7.3834,2093.59
7.3944,1992.6961
7.4054,1992.9135
7.4164,2030.2198
7.4274,2041.469
7.4384,2047.7198
7.4494,2005.5142
7.4604,2064.6284
7.4714,2069.9607
7.4824,1994.0197
7.4934,2003.0178
7.5044,2071.8924
7.5154,2101.5614
7.5264,2040.9675
7.5374,2023.5979
7.5484,2042.8087
7.5594,1996.6018
7.5704,2042.6898
7.5814,2037.7847
7.5924,2078.5884
7.6034,1995.0285
7.6144,2023.7469
7.6254,2062.4512
7.6364,1990.6136
7.6474,2054.8132
7.6584,2046.8318
7.6694,2030.8958
7.6804,2069.1573
7.6914,2019.8967
7.7024,1988.3796
7.7134,2030.056
7.7244,2007.4587
7.7354,2047.6795
7.7464,2068.2045
7.7574,2031.8231
7.7684,2059.2546
7.7794,2015.9764
7.7904,2025.9956
7.8014,2076.7945
7.8124,2080.3712
7.8234,2043.0353
7.8344,2012.8703
7.8454,2060
7.8564,2019.6459
7.8674,1960.5388
7.8784,1984.476
7.8894,2024.5723
7.9004,1993.847
7.9114,1971.7906
7.9224,2008.7994
7.9334,1963.2074
7.9444,1953.3496
7.9554,2039.2301
7.9664,2065.9376
7.9774,1999.4444
7.9884,2032.2022
7.9994,2078.3363
8.0104,2095.4366
8.0214,2082.3451
8.0324,2094.3186
8.0434,2030.6734
8.0544,1977.792
8.0654,1977.9617
8.0764,1985.6618
8.0874,1985.6077
8.0984,1954.9882
8.1094,2003.1653
8.1204,2029.7153
8.1314,2019.0855
8.1424,1944.7074
8.1534,2002.7435
8.1644,1991.7748
8.1754,1992.4287
8.1864,2012.5708
8.1974,2000.9725
8.2084,2029.5467
8.2194,1990.7463
8.2304,2028.7803
8.2414,1962.3018
8.2524,1986.9646
8.2634,1967.6214
8.2744,1995.0595
8.2854,2010.6962
8.2964,1977.3441
8.3074,1908.3756
8.3184,1955.4484
8.3294,1995.0571
8.3404,1941.2527
8.3514,2012.0089
8.3624,1985.4134
8.3734,1962.0452
8.3844,2065.761
8.3954,1947
8.4064,1947.7331
8.4174,1970.7847
8.4284,2021.527
8.4394,1942.3216
8.4504,2027.7521
8.4614,1928.1564
8.4724,1946.9317
8.4834,2013.4513
8.4944,2029.063
8.5054,2050.0668
8.5164,1979.0531
8.5274,1985.5674
8.5384,2019.3824
8.5494,1921.5044
8.5604,1958.5611
8.5714,2018.0294
8.5824,1934.2729
8.5934,1994.9961
8.6044,2030.6169
8.6154,1973.3275
8.6264,2031.6146
8.6374,1987.9821
8.6484,1897.4603
8.6594,1988.7207
8.6704,1968.0719
8.6814,2007.7079
8.6924,1977.8471
8.7034,1986.8398
8.7144,2019.6607
8.7254,2001.3038
8.7364,1995.2109
8.7474,1999.4956
8.7584,1974.7374
8.7694,1963.8712
8.7804,1970.379
8.7914,1973.2774
8.8024,1986.8343
8.8134,1954.0413
8.8244,1984.6279
8.8354,1992.8298
8.8464,1979.4779
8.8574,2000.3933
8.8684,2006.5909
8.8794,1928.0648
8.8904,1956.3571
8.9014,1968.8436
8.9124,1957.0118
8.9234,1967.4867
8.9344,1997.7434
8.9454,2030.7434
8.9564,2051.6387
8.9674,2010.0304
8.9784,1987.6962
8.9894,2000.6677
9.0004,1950.11
9.0114,1926
9.0224,1971.562
9.0334,1986.058
9.0444,2013.416
9.0554,1986.5162
9.0664,1947.967
9.0774,2007.4809
9.0884,1992.528
9.0994,2000.9941
9.1104,1950.7787
9.1214,1959.8456
9.1324,2001.2291
9.1434,1974.5221
9.1544,2021.2419
9.1654,1970.7226
9.1764,1935.2463
9.1874,2010.9588
9.1984,1976.6863
9.2094,2100.7052
9.2204,1968.3332
9.2314,1945.649
9.2424,1995.3894
9.2534,1945.9714
9.2644,1949.968
9.2754,1995.9115
9.2864,1980.4179
9.2974,1949.2134
9.3084,1957.2832
9.3194,1984.1278
9.3304,1949.8446
9.3414,1920.4779
9.3524,1929.034
9.3634,1957.9577
9.3744,1937.1149
9.3854,1856.6608
9.3964,1933.1471
9.4074,1989.3421
9.4184,1923.3432
9.4294,1921.5851
9.4404,1961.1328
9.4514,1973.0598
9.4624,1883.7582
9.4734,1967.9411
9.4844,2000.5082
9.4954,1877.3964
9.5064,1951.2965
9.5174,1971.9872
9.5284,1976.3964
9.5394,2032.0796
9.5504,2011.3023
9.5614,1988.3067
9.5724,1962.6755
9.5834,1958.0491
9.5944,1966.9288
9.6054,1996.7551
9.6164,1980.2615
9.6274,1961.6126
9.6384,1942.9469
9.6494,1962.2085
9.6604,2020.3909
9.6714,1981.1592
9.6824,1938.1009
9.6934,1941.6764
9.7044,1961.4072
9.7154,1943.3637
9.7264,1893.472
9.7374,1933.708
9.7484,1972.5143
9.7594,1971.1317
9.7704,1966.975
9.7814,1936.2959
9.7924,1888.6598
9.8034,1938.9706
9.8144,1901.9389
9.8254,1893.1908
9.8364,1965.8231
9.8474,1962.6833
9.8584,1976.237
9.8694,1967.2241
9.8804,1948.8628
9.8914,1984.8752
9.9024,1946.1872
9.9134,2002.066
9.9244,2016.1853
9.9354,1997.3628
9.9464,2002.0679
9.9574,1957.3873
9.9684,1997.6166
9.9794,1943.2575
9.9904,1976.5084
10.0014,1926.0825
10.0124,1932.735
10.0234,1966.4592
10.0344,1953.2124
10.0454,1943.0698
10.0564,1952.5428
10.0674,1980.7257
10.0784,1938.8426
10.0894,1985.2646
10.1004,1958.4572
10.1114,2035.9018
10.1224,1988.6228
10.1334,2032.3009
10.1444,2020.3235
10.1554,1987.3569
10.1664,2001.0192
10.1774,2014.592
10.1884,2054.3421
10.1994,1957.0325
10.2104,2007.5442
10.2214,1994.8465
10.2324,1939.9205
10.2434,2020.1868
10.2544,1976.7867
10.2654,2034.8613
10.2764,2025.9215
10.2874,2125.0156
10.2984,2038.9778
10.3094,2003.7443
10.3204,1960.9997
10.3314,2061.1858
10.3424,2053.6784
10.3534,2023.1564
10.3644,2030.5457
10.3754,2002.5447
10.3864,1954.3338
10.3974,1936.1918
10.4084,1939.8529
10.4194,1906.3058
10.4304,1914.4912
10.4414,1960.0138
10.4524,1953.2689
10.4634,1916
10.4744,1900.0506
10.4854,1885
10.4964,1903.8806
10.5074,1946.3275
10.5184,1966.5531
10.5294,1969.9646
10.5404,1943.0958
10.5514,1933.3098
10.5624,1934.699
10.5734,1921.7247
10.5844,1930.79
10.5954,1919.5782
10.6064,1941.8486
10.6174,1953
10.6284,1944.1991
10.6394,1937.06
10.6504,1939.6268
10.6614,1908.2802
10.6724,1902.974
10.6834,1938.1121
10.6944,1921.8362
10.7054,1921.5271
10.7164,1924.5275
10.7274,1916.7434
10.7384,1872.4385
10.7494,1884.5625
10.7604,1843.4674
10.7714,1897.008
10.7824,1856.2963
10.7934,1831.2331
10.8044,1922.4372
10.8154,1926.4808
10.8264,1941.6018
10.8374,1887.1454
10.8484,1911.0478
10.8594,1924.2242
10.8704,1918.4833
10.8814,1916.1996
10.8924,1894.8702
10.9034,1886.7001
10.9144,1872.6037
10.9254,1906.531
10.9364,1907.8289
10.9474,1944.5881
10.9584,1935.8171
10.9694,1905.2409
10.9804,1920.2203
10.9914,1843.5191
11.0024,1866.0035
11.0134,1885.062
11.0244,1920.5664
11.0354,1889.9085
11.0464,1931.3447
11.0574,1887.1327
11.0684,1930.8505
11.0794,1913.4424
11.0904,1843.2714
11.1014,1855.2056
11.1124,1936.3248
11.1234,1843.3009
11.1344,1821.4985
11.1454,1832.0551
11.1564,1888.183
11.1674,1945.6833
11.1784,1870.3968
11.1894,1862.1592
11.2004,1810.2331
11.2114,1878.5369
11.2224,1901.5222
11.2334,1951.5182
11.2444,1942.6361
11.2554,1883.4986
11.2664,1937.1553
11.2774,1915.9419
11.2884,1874.8688
11.2994,1889.8604
11.3104,1877.0064
11.3214,1857.2478
11.3324,1873.9986
11.3434,1903.0029
11.3544,1832.3981
11.3654,1809.5321
11.3764,1873.8697
11.3874,1831.9321
11.3984,1801.6353
11.4094,1864.9136
11.4204,1889.5928
11.4314,1860.4278
11.4424,1897.8172
11.4534,1839.4009
11.4644,1763.3319
11.4754,1774.5408
11.4864,1818.0739
11.4974,1877.6244
11.5084,1901.5581
11.5194,1865.3007
11.5304,1849.7754
11.5414,1885.5457
11.5524,1877.2493
11.5634,1870.5005
11.5744,1836.5393
11.5854,1875.6373
11.5964,1874.6508
11.6074,1865.7945
11.6184,1855.9159
11.6294,1821.642
11.6404,1856.6904
11.6514,1765.044
11.6624,1757.4986
11.6734,1807.6726
11.6844,1794.5825
11.6954,1799.6185
11.7064,1818.2778
11.7174,1840.6284
11.7284,1827.5831
11.7394,1921.9599
11.7504,1829.8066
11.7614,1889.3925
11.7724,1859.4861
11.7834,1929.0591
11.7944,1892.3819
11.8054,1931.6363
11.8164,1845.6547
11.8274,1864.0119
11.8384,1819.5565
11.8494,1840.2242
11.8604,1873.5118
11.8714,1859.7748
11.8824,1820.3259
11.8934,1794.6519
11.9044,1811.8693
11.9154,1866.5222
11.9264,1896.1053
11.9374,1864.6489
11.9484,1835.2138
11.9594,1856.6902
11.9704,1794.74
11.9814,1836.9115
11.9924,1833.6239
12.0034,1824.2969
12.0144,1815.4514
12.0254,1855.7403
12.0364,1770.0965
12.0474,1870.3656
12.0584,1786.6653
12.0694,1841.2398
12.0804,1776.9736
12.0914,1878.9627
12.1024,1882.3887
12.1134,1796.4956
12.1244,1835.0536
12.1354,1821.9291
12.1464,1795.8378
12.1574,1826.5722
12.1684,1808.7153
12.1794,1806.236
12.1904,1802.5212
12.2014,1846.3167
12.2124,1862.4291
12.2234,1813.1986
12.2344,1817.3805
12.2454,1797.8613
12.2564,1800.5124
12.2674,1847.5664
12.2784,1832.3346
12.2894,1812.9481
12.3004,1842.5121
12.3114,1798.4249
12.3224,1841.9896
12.3334,1829.1475
12.3444,1794.2683
12.3554,1746.2115
12.3664,1762.2419
12.3774,1760.4159
12.3884,1753.7674
12.3994,1755.4278
12.4104,1781.2655
12.4214,1780.3657
12.4324,1809.7415
12.4434,1814.7108
12.4544,1727.2924
12.4654,1759.8429
12.4764,1727.367
12.4874,1746.0691
12.4984,1823.4297
12.5094,1826.7079
12.5204,1839.3211
12.5314,1846.7797
12.5424,1829.2477
12.5534,1756.8111
12.5644,1751.5561
12.5754,1773.0118
12.5864,1767.8284
12.5974,1764.7178
12.6084,1792.7434
12.6194,1790.3795
12.6304,1786.7547
12.6414,1796.2036
12.6524,1835.625
12.6634,1750.223
12.6744,1756.3496
12.6854,1736.2517
12.6964,1797.1019
12.7074,1684.0529
12.7184,1735.0641
12.7294,1702.1395
12.7404,1711.6741
12.7514,1797.6481
12.7624,1781.8372
12.7734,1717.7315
12.7844,1771.3118
12.7954,1765.6706
12.8064,1797.3452
12.8174,1744.0737
12.8284,1732.2409
12.8394,1821.9264
12.8504,1859.9709
12.8614,1800.6037
12.8724,1769.9498
12.8834,1769.2705
12.8944,1801.3545
12.9054,1787.2654
12.9164,1755.3578
12.9274,1693.3069
12.9384,1769.932
12.9494,1683.8891
12.9604,1801.2723
12.9714,1775.9733
12.9824,1708.9825
12.9934,1801.6411
13.0044,1795.5088
13.0154,1758.5035
13.0264,1795.4085
13.0374,1790.4867
13.0484,1779.4479
13.0594,1776.8083
13.0704,1800.2862
13.0814,1816.8464
13.0924,1733.853
13.1034,1716.3186
13.1144,1739.7981
13.1254,1788.7619
13.1364,1721.7198
13.1474,1743.2617
13.1584,1772.0107
13.1694,1745.4219
13.1804,1761.2001
13.1914,1764.064
13.2024,1784.7566
13.2134,1760.9792
13.2244,1711.6322
13.2354,1710.767
13.2464,1711.7109
13.2574,1705.471
13.2684,1722.6755
13.2794,1740.476
13.2904,1754.9843
13.3014,1750.9557
13.3124,1785.2705
13.3234,1823.058
13.3344,1734.6856
13.3454,1737.6099
13.3564,1782.3259
13.3674,1783.6107
13.3784,1766.6577
13.3894,1816.3168
13.4004,1787.5794
13.4114,1746.0187
13.4224,1796.3325
13.4334,1783.8849
13.4444,1729.1253
13.4554,1770.8556
13.4664,1752.8509
13.4774,1667.5003
13.4884,1752.7132
13.4994,1685.5219
13.5104,1744.838
13.5214,1748.7394
13.5324,1721.9867
13.5434,1648.815
13.5544,1716.3704
13.5654,1753.59
13.5764,1667.7127
13.5874,1743.4073
13.5984,1774.0354
13.6094,1752.2399
13.6204,1785.8781
13.6314,1790.2537
13.6424,1809.4799
13.6534,1802.1249
13.6644,1724.5574
13.6754,1800.009
13.6864,1693.9118
13.6974,1701.1505
13.7084,1771.0621
13.7194,1770.1141
13.7304,1827.0591
13.7414,1861.8663
13.7524,1764.0637
13.7634,1653.9086
13.7744,1699.4048
13.7854,1770.769
13.7964,1785.1017
13.8074,1750.4394
13.8184,1709.7327
13.8294,1784.6224
13.8404,1778.3328
13.8514,1760.6402
13.8624,1788.5678
13.8734,1756.9107
13.8844,1817.792
13.8954,1783.9025
13.9064,1750.6521
13.9174,1843.0255
13.9284,1800.1636
13.9394,1737.3019
13.9504,1770.5615
13.9614,1789.0677
13.9724,1767.2642
13.9834,1831.8199
13.9944,1772.332
14.0054,1819.8585
14.0164,1830.8097
14.0274,1813.2625
14.0384,1820.591
14.0494,1787.1325
14.0604,1751.5887
14.0714,1826.232
14.0824,1800.6062
14.0934,1822.2568
14.1044,1858.9749
14.1154,1870.2843
14.1264,1904.9676
14.1374,1878.7934
14.1484,1856.6402
14.1594,1861.6961
14.1704,1829.3933
14.1814,1856.6029
14.1924,1883.5
14.2034,1856.0943
14.2144,1852.0654
14.2254,1942.4575
14.2364,1973.1075
14.2474,1928.525
14.2584,1945.5399
14.2694,1953.1071
14.2804,1899.1252
14.2914,1861.0619
14.3024,1866.5895
14.3134,1871.0944
14.3244,1864.82
14.3354,1938.5351
14.3464,1909.4482
14.3574,1906.1122
14.3684,1906.7635
14.3794,1862.7167
14.3904,1845.5575
14.4014,1908.0837
14.4124,1964.562
14.4234,1936.5781
14.4344,1941.7193
14.4454,1902.3863
14.4564,1858.2005
14.4674,1771.694
14.4784,1842.333
14.4894,1808.7609
14.5004,1811.5064
14.5114,1828.5595
14.5224,1844.031
14.5334,1801.0677
14.5444,1832.5193
14.5554,1848.7729
14.5664,1834.3957
14.5774,1833.9302
14.5884,1848.1372
14.5994,1769.754
14.6104,1798.8801
14.6214,1687.3744
14.6324,1725.6574
14.6434,1621.3305
14.6544,1702.6959
14.6654,1566.5076
14.6764,1685.7552
14.6874,1682.1771
14.6984,1722.0462
14.7094,1731.64
14.7204,1670.6992
14.7314,1695.1366
14.7424,1671.7183
14.7534,1678.9114
14.7644,1623.6429
14.7754,1547.6628
14.7864,1588.2744
14.7974,1612.2164
14.8084,1640.1627
14.8194,1605.3716
14.8304,1567
14.8414,1580.9608
14.8524,1624.2507
14.8634,1604.7541
14.8744,1570.2501
14.8854,1514.2124
14.8964,1517.6813
14.9074,1540.1262
14.9184,1639.6179
14.9294,1599.3244
14.9404,1580.6937
14.9514,1577.9055
14.9624,1563.3245
14.9734,1549.3853
14.9844,1562.6595
14.9954,1634.055
15.0064,1615.8569
15.0174,1573.6754
15.0284,1502.3868
15.0394,1508.7308
15.0504,1584.6048
15.0614,1581.1464
15.0724,1549.2493
15.0834,1557
15.0944,1536.1774
15.1054,1512.3589
15.1164,1567.5695
15.1274,1598.8446
15.1384,1564.175
15.1494,1581.3128
15.1604,1607.9081
15.1714,1537.5435
15.1824,1541.3453
15.1934,1551.879
15.2044,1543.3078
15.2154,1555.3599
15.2264,1572.4519
15.2374,1621.0621
15.2484,1550.2077
15.2594,1539.535
15.2704,1512.433
15.2814,1518.6549
15.2924,1541.853
15.3034,1547.7414
15.3144,1567.5959
15.3254,1548.7226
15.3364,1567.4612
15.3474,1534.6813
15.3584,1573.7769
15.3694,1500.4098
15.3804,1574.5002
15.3914,1541.9369
15.4024,1588.2332
15.4134,1542.6842
15.4244,1474.3912
15.4354,1558.4447
15.4464,1531.2492
15.4574,1438.3931
15.4684,1487.3974
15.4794,1470.4247
15.4904,1497.5104
15.5014,1470.1209
15.5124,1478.7493
15.5234,1504.6677
15.5344,1574.9657
15.5454,1554.8733
15.5564,1625.0366
15.5674,1505.946
15.5784,1528.6149
15.5894,1485.2921
15.6004,1532.5569
15.6114,1489.941
15.6224,1500.0978
15.6334,1499.5683
15.6444,1492.0399
15.6554,1522.3471
15.6664,1516.8877
15.6774,1447.5842
15.6884,1517.2601
15.6994,1537.7808
15.7104,1548.2108
15.7214,1502.7492
15.7324,1496.234
15.7434,1485.8053
15.7544,1472.736
15.7654,1481.6982
15.7764,1508.2877
15.7874,1504.0126
15.7984,1472.4496
15.8094,1546.0679
15.8204,1550.7665
15.8314,1553.6215
15.8424,1538.4143
15.8534,1499.9333
15.8644,1533.4223
15.8754,1537.3717
15.8864,1549.4287
15.8974,1543.7591
15.9084,1517.7123
15.9194,1484.1327
15.9304,1492.2597
15.9414,1495.3716
15.9524,1440.7412
15.9634,1448.2382
15.9744,1484.3539
15.9854,1485.1446
15.9964,1496.7168
16.0074,1530.2421
16.0184,1507.4845
16.0294,1489.7091
16.0404,1489.8849
16.0514,1440.1405
16.0624,1481.485
16.0734,1502.1327
16.0844,1490.6844
16.0954,1470.4512
16.1064,1503.6211
16.1174,1472.0667
16.1284,1476.151
16.1394,1514.2656
16.1504,1484.7949
16.1614,1491.5035
16.1724,1514.823
16.1834,1469.2722
16.1944,1402.0967
16.2054,1434.4515
16.2164,1441.0998
16.2274,1453.4769
16.2384,1492.5901
16.2494,1414.1728
16.2604,1414.7002
16.2714,1390.3716
16.2824,1460.0125
16.2934,1427.5348
16.3044,1451.6756
16.3154,1446.5339
16.3264,1432.6175
16.3374,1404.0973
16.3484,1512.813
16.3594,1533.2134
16.3704,1416.3626
16.3814,1451.5124
16.3924,1406.0894
16.4034,1489.4043
16.4144,1448.757
16.4254,1429.0934
16.4364,1387.509
16.4474,1457.5144
16.4584,1529.9959
16.4694,1439.0885
16.4804,1439.9823
16.4914,1420.2467
16.5024,1388.1919
16.5134,1435.8837
16.5244,1347.5555
16.5354,1511.3481
16.5464,1486.6227
16.5574,1405.9961
16.5684,1413.8185
16.5794,1403.0356
16.5904,1440.748
16.6014,1348.7789
16.6124,1396.121
16.6234,1421.2979
16.6344,1420.5132
16.6454,1398.1455
16.6564,1381.6956
16.6674,1393.1595
16.6784,1460.2778
16.6894,1460.1298
16.7004,1459.2094
16.7114,1445.0087
16.7224,1412.9042
16.7334,1422.6608
16.7444,1427.9759
16.7554,1445.9125
16.7664,1433.553
16.7774,1386.0088
16.7884,1382.2124
16.7994,1395.0649
16.8104,1412.4593
16.8214,1421.0609
16.8324,1406.1003
16.8434,1411.47
16.8544,1403.818
16.8654,1383.1062
16.8764,1383.9902
16.8874,1387.4661
16.8984,1383.9056
16.9094,1420.5842
16.9204,1467.1564
16.9314,1478
16.9424,1456.2349
16.9534,1412.5024
16.9644,1411.5178
16.9754,1451.4337
16.9864,1497.6088
16.9974,1477.581
17.0084,1424.3209
17.0194,1389.2123
17.0304,1410.1992
17.0414,1416.7994
17.0524,1394.9124
17.0634,1381.3363
17.0744,1337.225
17.0854,1364.2204
17.0964,1338.289
17.1074,1386.0848
17.1184,1369.8372
17.1294,1395.7405
17.1404,1406.794
17.1514,1411.8378
17.1624,1413
17.1734,1440.419
17.1844,1365.0558
17.1954,1369.6756
17.2064,1379.0743
17.2174,1394.9607
17.2284,1345.2447
17.2394,1391.4682
17.2504,1426.3413
17.2614,1407.6283
17.2724,1448.3674
17.2834,1426.2015
17.2944,1384.4247
17.3054,1329.1896
17.3164,1471.6459
17.3274,1295.3159
17.3384,1401.0244
17.3494,1339.4869
17.3604,1392.9558
17.3714,1415.2183
17.3824,1404.5424
17.3934,1452.7787
17.4044,1408.5716
17.4154,1361.4063
17.4264,1425.7785
17.4374,1348.8948
17.4484,1368.1711
17.4594,1361.646
17.4704,1362.7877
17.4814,1402.0491
17.4924,1383.7405
17.5034,1415.0215
17.5144,1378.2046
17.5254,1391.5485
17.5364,1345
17.5474,1355.1997
17.5584,1377.6459
17.5694,1337.052
17.5804,1298.8555
17.5914,1334.7701
17.6024,1381.1716
17.6134,1354.3931
17.6244,1325.164
17.6354,1381.6449
17.6464,1366.9696
17.6574,1398.2566
17.6684,1402.3756
17.6794,1384.8464
17.6904,1345.4086
17.7014,1343.8958
17.7124,1346.1977
17.7234,1322.2653
17.7344,1312.3787
17.7454,1328.1395
17.7564,1365.3941
17.7674,1410.6784
17.7784,1377.7797
17.7894,1377.5753
17.8004,1392.5315
17.8114,1367.9871
17.8224,1354.2286
17.8334,1387.8487
17.8444,1369.517
17.8554,1372.4249
17.8664,1337.7151
17.8774,1303.47
17.8884,1332.0812
17.8994,1308.1906
17.9104,1282.7281
17.9214,1396.3338
17.9324,1335.8609
17.9434,1321.4751
17.9544,1296.3804
17.9654,1276.5683
17.9764,1306.5812
17.9874,1324.6637
17.9984,1327
18.0094,1354.5399
18.0204,1322.581
18.0314,1366.2706
18.0424,1409.0655
18.0534,1375.2919
18.0644,1323.0245
18.0754,1285.4827
18.0864,1364.2525
18.0974,1310.7972
18.1084,1375.3031
18.1194,1323.8464
18.1304,1333.1038
18.1414,1268.3882
18.1524,1335.9825
18.1634,1255.7893
18.1744,1276.5822
18.1854,1355.894
18.1964,1334.6514
18.2074,1306.3854
18.2184,1290.0236
18.2294,1310.2009
18.2404,1417.3193
18.2514,1304.6726
18.2624,1321.0446
18.2734,1288.0583
18.2844,1376.134
18.2954,1289.5222
18.3064,1306
18.3174,1309.711
18.3284,1344.4932
18.3394,1367.5052
18.3504,1312.863
18.3614,1345.5594
18.3724,1315.5537
18.3834,1364.9263
18.3944,1371.5589
18.4054,1347.2822
18.4164,1335.5617
18.4274,1272.5144
18.4384,1296.9139
18.4494,1295.2745
18.4604,1330.872
18.4714,1269.4061
18.4824,1294.4264
18.4934,1333.1562
18.5044,1316.0876
